# T(K) V(Ang^3) B(GPa) M1(GPa) M2(GPa) M3(GPa) M4(GPa) M5(GPa) M6(GPa) E(GPa) G(GPa)
0.0  16.644931    75.5727   226.7180    57.1344    57.1344    44.4965    44.4965    44.4965    97.9099    38.1248
0.05  16.644931    75.5727   226.7180    57.1344    57.1344    44.4965    44.4965    44.4965    97.9099    38.1248
0.13  16.644931    75.5727   226.7180    57.1344    57.1344    44.4965    44.4965    44.4965    97.9099    38.1248
0.24  16.644931    75.5727   226.7180    57.1344    57.1344    44.4965    44.4965    44.4965    97.9099    38.1248
0.37  16.644931    75.5727   226.7180    57.1344    57.1344    44.4965    44.4965    44.4965    97.9099    38.1248
0.53  16.644931    75.5727   226.7180    57.1344    57.1344    44.4965    44.4965    44.4965    97.9099    38.1248
0.73  16.644931    75.5727   226.7180    57.1344    57.1344    44.4965    44.4965    44.4965    97.9099    38.1248
0.94  16.644931    75.5727   226.7180    57.1344    57.1344    44.4965    44.4965    44.4965    97.9099    38.1248
1.19  16.644931    75.5727   226.7180    57.1344    57.1344    44.4965    44.4965    44.4965    97.9099    38.1248
1.47  16.644931    75.5727   226.7180    57.1344    57.1344    44.4965    44.4965    44.4965    97.9099    38.1248
1.77  16.644931    75.5727   226.7180    57.1344    57.1344    44.4965    44.4965    44.4965    97.9099    38.1248
2.1  16.644931    75.5727   226.7180    57.1344    57.1344    44.4965    44.4965    44.4965    97.9099    38.1248
2.47  16.644931    75.5727   226.7180    57.1344    57.1344    44.4965    44.4965    44.4965    97.9099    38.1248
2.85  16.644931    75.5727   226.7180    57.1344    57.1344    44.4965    44.4965    44.4965    97.9099    38.1248
3.27  16.644931    75.5727   226.7180    57.1344    57.1344    44.4965    44.4965    44.4965    97.9099    38.1248
3.72  16.644931    75.5727   226.7180    57.1344    57.1344    44.4965    44.4965    44.4965    97.9099    38.1248
4.19  16.644931    75.5727   226.7180    57.1344    57.1344    44.4965    44.4965    44.4965    97.9099    38.1248
4.69  16.644931    75.5727   226.7180    57.1344    57.1344    44.4965    44.4965    44.4965    97.9099    38.1248
5.22  16.644931    75.5726   226.7179    57.1344    57.1344    44.4965    44.4965    44.4965    97.9099    38.1248
5.78  16.644931    75.5726   226.7179    57.1344    57.1344    44.4965    44.4965    44.4965    97.9099    38.1248
6.37  16.644931    75.5726   226.7179    57.1344    57.1344    44.4965    44.4965    44.4965    97.9099    38.1248
6.98  16.644932    75.5726   226.7178    57.1344    57.1344    44.4965    44.4965    44.4965    97.9099    38.1248
7.62  16.644932    75.5726   226.7178    57.1344    57.1344    44.4965    44.4965    44.4965    97.9099    38.1248
8.29  16.644932    75.5726   226.7177    57.1343    57.1343    44.4965    44.4965    44.4965    97.9098    38.1248
8.99  16.644933    75.5725   226.7176    57.1343    57.1343    44.4965    44.4965    44.4965    97.9098    38.1248
9.72  16.644934    75.5725   226.7175    57.1343    57.1343    44.4965    44.4965    44.4965    97.9098    38.1248
10.48  16.644934    75.5724   226.7173    57.1342    57.1342    44.4965    44.4965    44.4965    97.9097    38.1247
11.26  16.644935    75.5723   226.7170    57.1342    57.1342    44.4965    44.4965    44.4965    97.9097    38.1247
12.07  16.644937    75.5723   226.7168    57.1341    57.1341    44.4965    44.4965    44.4965    97.9096    38.1247
12.91  16.644938    75.5721   226.7164    57.1340    57.1340    44.4964    44.4964    44.4964    97.9095    38.1247
13.78  16.644940    75.5720   226.7159    57.1339    57.1339    44.4964    44.4964    44.4964    97.9094    38.1246
14.68  16.644943    75.5718   226.7153    57.1338    57.1338    44.4964    44.4964    44.4964    97.9092    38.1246
15.6  16.644946    75.5715   226.7145    57.1336    57.1336    44.4963    44.4963    44.4963    97.9090    38.1245
16.55  16.644950    75.5712   226.7136    57.1333    57.1333    44.4962    44.4962    44.4962    97.9088    38.1244
17.53  16.644956    75.5708   226.7124    57.1330    57.1330    44.4962    44.4962    44.4962    97.9085    38.1243
18.54  16.644962    75.5703   226.7108    57.1327    57.1327    44.4961    44.4961    44.4961    97.9081    38.1242
19.58  16.644970    75.5696   226.7089    57.1322    57.1322    44.4959    44.4959    44.4959    97.9076    38.1240
20.65  16.644980    75.5688   226.7065    57.1316    57.1316    44.4958    44.4958    44.4958    97.9070    38.1238
21.74  16.644992    75.5679   226.7036    57.1309    57.1309    44.4956    44.4956    44.4956    97.9063    38.1235
22.86  16.645006    75.5667   226.7000    57.1300    57.1300    44.4954    44.4954    44.4954    97.9054    38.1232
24.01  16.645025    75.5652   226.6956    57.1289    57.1289    44.4951    44.4951    44.4951    97.9042    38.1229
25.19  16.645047    75.5634   226.6903    57.1276    57.1276    44.4948    44.4948    44.4948    97.9029    38.1224
26.4  16.645075    75.5613   226.6839    57.1261    57.1261    44.4944    44.4944    44.4944    97.9013    38.1218
27.63  16.645108    75.5588   226.6763    57.1242    57.1242    44.4939    44.4939    44.4939    97.8993    38.1212
28.9  16.645148    75.5558   226.6673    57.1220    57.1220    44.4933    44.4933    44.4933    97.8970    38.1203
30.19  16.645196    75.5523   226.6568    57.1194    57.1194    44.4925    44.4925    44.4925    97.8942    38.1194
31.51  16.645252    75.5482   226.6446    57.1164    57.1164    44.4917    44.4917    44.4917    97.8910    38.1183
32.85  16.645319    75.5435   226.6305    57.1130    57.1130    44.4907    44.4907    44.4907    97.8873    38.1170
34.23  16.645399    75.5381   226.6143    57.1090    57.1090    44.4894    44.4894    44.4894    97.8830    38.1155
35.63  16.645491    75.5320   226.5959    57.1045    57.1045    44.4881    44.4881    44.4881    97.8780    38.1137
37.07  16.645598    75.5250   226.5749    57.0994    57.0994    44.4864    44.4864    44.4864    97.8723    38.1117
38.53  16.645722    75.5172   226.5515    57.0937    57.0937    44.4846    44.4846    44.4846    97.8659    38.1095
40.02  16.645864    75.5084   226.5252    57.0873    57.0873    44.4824    44.4824    44.4824    97.8586    38.1069
41.53  16.646024    75.4987   226.4962    57.0802    57.0802    44.4800    44.4800    44.4800    97.8505    38.1040
43.08  16.646208    75.4880   226.4639    57.0724    57.0724    44.4772    44.4772    44.4772    97.8413    38.1008
44.65  16.646413    75.4762   226.4285    57.0638    57.0638    44.4741    44.4741    44.4741    97.8312    38.0972
46.25  16.646645    75.4632   226.3897    57.0544    57.0544    44.4706    44.4706    44.4706    97.8201    38.0932
47.88  16.646903    75.4491   226.3473    57.0441    57.0441    44.4667    44.4667    44.4667    97.8077    38.0888
49.54  16.647190    75.4338   226.3013    57.0329    57.0329    44.4623    44.4623    44.4623    97.7942    38.0840
51.23  16.647508    75.4172   226.2515    57.0209    57.0209    44.4575    44.4575    44.4575    97.7795    38.0787
52.94  16.647857    75.3994   226.1981    57.0080    57.0080    44.4522    44.4522    44.4522    97.7635    38.0729
54.68  16.648240    75.3802   226.1407    56.9941    56.9941    44.4464    44.4464    44.4464    97.7462    38.0667
56.45  16.648659    75.3598   226.0793    56.9793    56.9793    44.4400    44.4400    44.4400    97.7275    38.0599
58.25  16.649116    75.3379   226.0137    56.9634    56.9634    44.4331    44.4331    44.4331    97.7073    38.0526
60.08  16.649612    75.3146   225.9439    56.9466    56.9466    44.4256    44.4256    44.4256    97.6856    38.0447
61.94  16.650149    75.2900   225.8699    56.9288    56.9288    44.4175    44.4175    44.4175    97.6625    38.0362
63.82  16.650725    75.2640   225.7920    56.9100    56.9100    44.4087    44.4087    44.4087    97.6379    38.0273
65.73  16.651345    75.2366   225.7097    56.8902    56.8902    44.3993    44.3993    44.3993    97.6117    38.0177
67.67  16.652011    75.2077   225.6231    56.8694    56.8694    44.3893    44.3893    44.3893    97.5838    38.0075
69.64  16.652722    75.1774   225.5321    56.8476    56.8476    44.3785    44.3785    44.3785    97.5543    37.9966
71.64  16.653481    75.1456   225.4368    56.8247    56.8247    44.3670    44.3670    44.3670    97.5232    37.9851
73.66  16.654285    75.1125   225.3375    56.8009    56.8009    44.3548    44.3548    44.3548    97.4905    37.9731
75.71  16.655139    75.0780   225.2339    56.7761    56.7761    44.3419    44.3419    44.3419    97.4561    37.9604
77.79  16.656043    75.0420   225.1259    56.7502    56.7502    44.3282    44.3282    44.3282    97.4199    37.9470
79.9  16.656999    75.0045   225.0136    56.7233    56.7233    44.3137    44.3137    44.3137    97.3820    37.9329
82.04  16.658008    74.9656   224.8969    56.6954    56.6954    44.2985    44.2985    44.2985    97.3423    37.9182
84.21  16.659070    74.9253   224.7760    56.6664    56.6664    44.2824    44.2824    44.2824    97.3009    37.9027
86.4  16.660181    74.8838   224.6513    56.6366    56.6366    44.2656    44.2656    44.2656    97.2578    37.8867
88.62  16.661346    74.8408   224.5224    56.6058    56.6058    44.2480    44.2480    44.2480    97.2130    37.8699
90.87  16.662567    74.7964   224.3892    56.5740    56.5740    44.2295    44.2295    44.2295    97.1664    37.8525
93.15  16.663843    74.7506   224.2519    56.5413    56.5413    44.2102    44.2102    44.2102    97.1180    37.8344
95.46  16.665176    74.7035   224.1105    56.5075    56.5075    44.1900    44.1900    44.1900    97.0677    37.8155
97.79  16.666559    74.6552   223.9656    56.4729    56.4729    44.1691    44.1691    44.1691    97.0159    37.7961
100.15  16.667999    74.6055   223.8166    56.4374    56.4374    44.1473    44.1473    44.1473    96.9623    37.7759
102.55  16.669502    74.5543   223.6630    56.4008    56.4008    44.1246    44.1246    44.1246    96.9067    37.7549
104.97  16.671057    74.5020   223.5061    56.3634    56.3634    44.1011    44.1011    44.1011    96.8495    37.7334
107.41  16.672662    74.4486   223.3459    56.3252    56.3252    44.0769    44.0769    44.0769    96.7907    37.7112
109.89  16.674332    74.3937   223.1811    56.2859    56.2859    44.0516    44.0516    44.0516    96.7299    37.6882
112.39  16.676053    74.3377   223.0132    56.2459    56.2459    44.0256    44.0256    44.0256    96.6676    37.6646
114.93  16.677839    74.2803   222.8408    56.2048    56.2048    43.9987    43.9987    43.9987    96.6032    37.6402
117.49  16.679676    74.2218   222.6653    56.1630    56.1630    43.9709    43.9709    43.9709    96.5373    37.6152
120.07  16.681564    74.1623   222.4868    56.1205    56.1205    43.9424    43.9424    43.9424    96.4699    37.5896
122.69  16.683517    74.1013   222.3039    56.0769    56.0769    43.9129    43.9129    43.9129    96.4005    37.5631
125.34  16.685528    74.0391   222.1174    56.0324    56.0324    43.8826    43.8826    43.8826    96.3293    37.5360
128.01  16.687590    73.9760   221.9280    55.9873    55.9873    43.8515    43.8515    43.8515    96.2566    37.5084
130.71  16.689710    73.9117   221.7350    55.9413    55.9413    43.8195    43.8195    43.8195    96.1822    37.4800
133.44  16.691887    73.8462   221.5385    55.8944    55.8944    43.7867    43.7867    43.7867    96.1060    37.4509
136.2  16.694123    73.7795   221.3385    55.8467    55.8467    43.7530    43.7530    43.7530    96.0282    37.4211
138.98  16.696407    73.7119   221.1358    55.7983    55.7983    43.7186    43.7186    43.7186    95.9488    37.3908
141.8  16.698758    73.6430   220.9289    55.7489    55.7489    43.6831    43.6831    43.6831    95.8675    37.3597
144.64  16.701158    73.5731   220.7193    55.6988    55.6988    43.6470    43.6470    43.6470    95.7848    37.3280
147.51  16.703615    73.5021   220.5064    55.6480    55.6480    43.6100    43.6100    43.6100    95.7003    37.2956
150.41  16.706130    73.4300   220.2901    55.5962    55.5962    43.5721    43.5721    43.5721    95.6142    37.2625
153.34  16.708701    73.3568   220.0705    55.5437    55.5437    43.5334    43.5334    43.5334    95.5264    37.2288
156.29  16.711321    73.2828   219.8483    55.4905    55.4905    43.4940    43.4940    43.4940    95.4372    37.1945
159.28  16.714006    73.2074   219.6221    55.4363    55.4363    43.4536    43.4536    43.4536    95.3460    37.1594
162.29  16.716739    73.1311   219.3934    55.3815    55.3815    43.4125    43.4125    43.4125    95.2534    37.1238
165.33  16.719529    73.0538   219.1615    55.3259    55.3259    43.3705    43.3705    43.3705    95.1592    37.0875
168.4  16.722375    72.9754   218.9263    55.2694    55.2694    43.3278    43.3278    43.3278    95.0634    37.0505
171.49  16.725268    72.8963   218.6888    55.2123    55.2123    43.2843    43.2843    43.2843    94.9661    37.0131
174.62  16.728227    72.8158   218.4473    55.1543    55.1543    43.2399    43.2399    43.2399    94.8670    36.9748
177.77  16.731232    72.7345   218.2034    55.0955    55.0955    43.1948    43.1948    43.1948    94.7665    36.9360
180.95  16.734293    72.6521   217.9563    55.0360    55.0360    43.1488    43.1488    43.1488    94.6643    36.8965
184.16  16.737410    72.5687   217.7061    54.9757    54.9757    43.1020    43.1020    43.1020    94.5605    36.8564
187.4  16.740583    72.4843   217.4528    54.9145    54.9145    43.0545    43.0545    43.0545    94.4551    36.8156
190.66  16.743801    72.3991   217.1972    54.8527    54.8527    43.0062    43.0062    43.0062    94.3484    36.7743
193.96  16.747084    72.3126   216.9377    54.7899    54.7899    42.9570    42.9570    42.9570    94.2397    36.7322
197.28  16.750413    72.2253   216.6759    54.7265    54.7265    42.9071    42.9071    42.9071    94.1298    36.6896
200.63  16.753798    72.1370   216.4111    54.6622    54.6622    42.8564    42.8564    42.8564    94.0182    36.6463
204.01  16.757237    72.0477   216.1431    54.5972    54.5972    42.8049    42.8049    42.8049    93.9050    36.6024
207.41  16.760722    71.9576   215.8729    54.5315    54.5315    42.7528    42.7528    42.7528    93.7905    36.5580
210.85  16.764271    71.8663   215.5989    54.4647    54.4647    42.6997    42.6997    42.6997    93.6741    36.5128
214.31  16.767865    71.7742   215.3226    54.3973    54.3973    42.6460    42.6460    42.6460    93.5564    36.4670
217.8  16.771515    71.6811   215.0433    54.3291    54.3291    42.5914    42.5914    42.5914    93.4371    36.4207
221.32  16.775219    71.5870   214.7609    54.2600    54.2600    42.5361    42.5361    42.5361    93.3162    36.3736
224.87  16.778978    71.4918   214.4755    54.1901    54.1901    42.4799    42.4799    42.4799    93.1936    36.3260
228.45  16.782791    71.3957   214.1871    54.1194    54.1194    42.4230    42.4230    42.4230    93.0695    36.2777
232.05  16.786649    71.2988   213.8964    54.0479    54.0479    42.3654    42.3654    42.3654    92.9441    36.2288
235.68  16.790562    71.2009   213.6028    53.9756    53.9756    42.3071    42.3071    42.3071    92.8170    36.1794
239.34  16.794529    71.1020   213.3061    53.9025    53.9025    42.2479    42.2479    42.2479    92.6884    36.1292
243.03  16.798551    71.0021   213.0064    53.8285    53.8285    42.1880    42.1880    42.1880    92.5582    36.0785
246.75  16.802628    70.9012   212.7037    53.7536    53.7536    42.1273    42.1273    42.1273    92.4263    36.0271
250.49  16.806749    70.7996   212.3988    53.6780    53.6780    42.0659    42.0659    42.0659    92.2932    35.9751
254.27  16.810936    70.6967   212.0901    53.6013    53.6013    42.0036    42.0036    42.0036    92.1581    35.9224
258.07  16.815166    70.5930   211.7791    53.5239    53.5239    41.9407    41.9407    41.9407    92.0218    35.8692
261.9  16.819452    70.4884   211.4652    53.4456    53.4456    41.8770    41.8770    41.8770    91.8838    35.8153
265.75  16.823781    70.3830   211.1490    53.3667    53.3667    41.8126    41.8126    41.8126    91.7446    35.7609
269.64  16.828176    70.2763   210.8290    53.2866    53.2866    41.7473    41.7473    41.7473    91.6033    35.7057
273.56  16.832627    70.1687   210.5060    53.2055    53.2055    41.6813    41.6813    41.6813    91.4605    35.6499
277.5  16.837121    70.0603   210.1808    53.1238    53.1238    41.6146    41.6146    41.6146    91.3164    35.5935
281.47  16.841671    69.9509   209.8526    53.0411    53.0411    41.5471    41.5471    41.5471    91.1706    35.5365
285.47  16.846276    69.8404   209.5213    52.9575    52.9575    41.4789    41.4789    41.4789    91.0232    35.4788
289.49  16.850925    69.7293   209.1878    52.8731    52.8731    41.4100    41.4100    41.4100    90.8745    35.4206
293.55  16.855641    69.6168   208.8505    52.7875    52.7875    41.3402    41.3402    41.3402    90.7239    35.3616
297.63  16.860401    69.5036   208.5109    52.7012    52.7012    41.2697    41.2697    41.2697    90.5719    35.3021
301.74  16.865217    69.3894   208.1683    52.6139    52.6139    41.1985    41.1985    41.1985    90.4182    35.2419
305.88  16.870089    69.2742   207.8227    52.5256    52.5256    41.1265    41.1265    41.1265    90.2629    35.1810
310.05  16.875017    69.1580   207.4740    52.4363    52.4363    41.0537    41.0537    41.0537    90.1060    35.1195
314.25  16.880001    69.0407   207.1222    52.3460    52.3460    40.9801    40.9801    40.9801    89.9473    35.0572
318.47  16.885030    68.9227   206.7682    52.2549    52.2549    40.9058    40.9058    40.9058    89.7874    34.9945
322.73  16.890127    68.8034   206.4103    52.1625    52.1625    40.8307    40.8307    40.8307    89.6254    34.9309
327.01  16.895270    68.6834   206.0502    52.0693    52.0693    40.7549    40.7549    40.7549    89.4620    34.8668
331.32  16.900469    68.5623   205.6870    51.9751    51.9751    40.6783    40.6783    40.6783    89.2970    34.8020
335.65  16.905713    68.4405   205.3215    51.8800    51.8800    40.6011    40.6011    40.6011    89.1306    34.7366
340.02  16.911027    68.3173   204.9520    51.7837    51.7837    40.5229    40.5229    40.5229    88.9622    34.6705
344.41  16.916386    68.1935   204.5804    51.6864    51.6864    40.4441    40.4441    40.4441    88.7924    34.6037
348.83  16.921803    68.0685   204.2056    51.5881    51.5881    40.3644    40.3644    40.3644    88.6209    34.5363
353.28  16.927278    67.9425   203.8276    51.4887    51.4887    40.2840    40.2840    40.2840    88.4476    34.4682
357.76  16.932811    67.8155   203.4466    51.3881    51.3881    40.2028    40.2028    40.2028    88.2726    34.3993
362.27  16.938403    67.6875   203.0624    51.2864    51.2864    40.1208    40.1208    40.1208    88.0958    34.3298
366.8  16.944041    67.5586   202.6759    51.1838    51.1838    40.0381    40.0381    40.0381    87.9177    34.2597
371.37  16.949751    67.4285   202.2854    51.0799    51.0799    39.9545    39.9545    39.9545    87.7373    34.1887
375.96  16.955507    67.2975   201.8926    50.9749    50.9749    39.8702    39.8702    39.8702    87.5556    34.1171
380.58  16.961323    67.1655   201.4966    50.8688    50.8688    39.7851    39.7851    39.7851    87.3721    34.0448
385.22  16.967186    67.0328   201.0983    50.7617    50.7617    39.6994    39.6994    39.6994    87.1872    33.9720
389.9  16.973122    66.8986   200.6959    50.6532    50.6532    39.6127    39.6127    39.6127    87.0001    33.8982
394.6  16.979105    66.7637   200.2912    50.5436    50.5436    39.5253    39.5253    39.5253    86.8116    33.8239
399.34  16.985163    66.6275   199.8824    50.4326    50.4326    39.4370    39.4370    39.4370    86.6208    33.7487
404.1  16.991268    66.4904   199.4712    50.3206    50.3206    39.3479    39.3479    39.3479    86.4286    33.6729
408.88  16.997422    66.3526   199.0577    50.2075    50.2075    39.2583    39.2583    39.2583    86.2349    33.5965
413.7  17.003651    66.2134   198.6401    50.0929    50.0929    39.1676    39.1676    39.1676    86.0389    33.5191
